File: HDPE-1 processed.csv
wavenumber,intensity
599.76,0
611.331,0
622.902,0
634.473,0
646.044,0
657.615,0
669.186,0
680.757,0
692.328,0
703.899,0.0166786
715.47,0.055804
727.041,0.0436627
738.612,0
750.183,0
761.754,0
773.325,0
784.895,0
796.466,0
808.037,0
819.608,0
831.179,0
842.75,0
854.321,0
865.892,0
877.463,0
889.034,0
900.605,0
912.176,0
923.747,0
935.318,0
946.889,0
958.46,0
970.03,0
981.601,0
993.172,0
1004.74,0
1016.31,0
1027.89,0
1039.46,0
1051.03,0
1062.6,0
1074.17,0
1085.74,0
1097.31,0
1108.88,0
1120.45,0
1132.02,0
1143.59,0
1155.17,0
1166.74,0
1178.31,0
1189.88,0
1201.45,0
1213.02,0
1224.59,0
1236.16,0
1247.73,0
1259.3,0
1270.87,0
1282.45,0
1294.02,0
1305.59,0
1317.16,0
1328.73,0
1340.3,0
1351.87,0
1363.44,0
1375.01,0
1386.58,0
1398.16,0
1409.73,0.0144619
1421.3,0.0144969
1432.87,0.02403
1444.44,0.0346363
1456.01,0.0176591
1467.58,0.116935
1479.15,0.0237152
1490.72,0
1502.29,0
1513.86,0
1525.44,0
1537.01,0
1548.58,0
1560.15,0
1571.72,0
1583.29,0.0137182
1594.86,0.0137172
1606.43,0.0152642
1618,0
1629.57,0.0161214
1641.15,0.0203767
1652.72,0
1664.29,0.0146417
1675.86,0
1687.43,0.0155724
1699,0
1710.57,0.0190676
1722.14,0.018146
1733.71,0
1745.28,0.0231416
1756.85,0
1768.43,0
1780,0
1791.57,0
1803.14,0
1814.71,0
1826.28,0
1837.85,0
1849.42,0
1860.99,0
1872.56,0
1884.13,0
1895.71,0
1907.28,0
1918.85,0
1930.42,0
1941.99,0
1953.56,0
1965.13,0
1976.7,0
1988.27,0
1999.84,0
2011.42,0
2022.99,0
2034.56,0
2046.13,0
2057.7,0
2069.27,0
2080.84,0
2092.41,0
2103.98,0
2115.55,0
2127.12,0
2138.7,0
2150.27,0
2161.84,0
2173.41,0
2184.98,0
2196.55,0
2208.12,0
2219.69,0
2231.26,0
2242.83,0
2254.4,0
2265.98,0
2277.55,0
2289.12,0
2300.69,0
2312.26,0
2323.83,0
2335.4,0
2346.97,0
2358.54,0
2370.11,0
2381.69,0
2393.26,0
2404.83,0
2416.4,0
2427.97,0
2439.54,0
2451.11,0
2462.68,0
2474.25,0
2485.82,0
2497.39,0
2508.97,0
2520.54,0
2532.11,0
2543.68,0
2555.25,0
2566.82,0
2578.39,0
2589.96,0
2601.53,0
2613.1,0
2624.67,0.0131768
2636.25,0.0142032
2647.82,0.0135749
2659.39,0.0140107
2670.96,0.012852
2682.53,0.01327378
2694.1,0.0140961
2705.67,0.01590329
2717.24,0.0159382
2728.81,0.01727
2740.38,0.0193001
2751.96,0.0179721
2763.53,0.0231001
2775.1,0.0294531
2786.67,0.0388644
2798.24,0.0586435
2809.81,0.0769248
2821.38,0.108166
2832.95,0.193807
2844.52,0.700961
2856.09,0.366386
2867.66,0.14862
2879.24,0.221427
2890.81,0.368841
2902.38,0.5223225
2913.95,0.98019
2925.52,0.54102
2937.09,0.212123
2948.66,0.0883795
2960.23,0.0613873
2971.8,0.0180108
2983.37,0
2994.95,0
3006.52,0
3018.09,0
3029.66,0
3041.23,0
3052.8,0
3064.37,0
3075.94,0
3087.51,0
3099.08,0
3110.65,0
3122.23,0
3133.8,0
3145.37,0
3156.94,0
3168.51,0
3180.08,0
3191.65,0
3203.22,0
3214.79,0
3226.36,0
3237.93,0
3249.51,0
3261.08,0
3272.65,0
3284.22,0
3295.79,0
3307.36,0
3318.93,0
3330.5,0
3342.07,0
3353.64,0
3365.22,0
3376.79,0
3388.36,0
3399.93,0
3411.5,0
3423.07,0
3434.64,0
3446.21,0
3457.78,0
3469.35,0.01381
3480.92,0
3492.5,0.01363747
3504.07,0
3515.64,0.016164
3527.21,0
3538.78,0.0179562
3550.35,0.0172341
3561.92,0.0156235
3573.49,0.0181599
3585.06,0
3596.63,0.0154677
3608.2,0
3619.78,0
3631.35,0.0168735
3642.92,0.0241208
3654.49,0.0165137
3666.06,0.0458193
3677.63,0
3689.2,0
3700.77,0.0190041
3712.34,0
3723.91,0.0355906
3735.49,0
3747.06,0.0412064
3758.63,0.0182245
3770.2,0.0170215
3781.77,0.04968
3793.34,0.05170577
3804.91,0.0439961
3816.48,0
3828.05,0.0460929
3839.62,0
3851.19,0
3862.77,0.0218483
3874.34,0.0191929
3885.91,0
3897.48,0.0363814
3909.05,0.0393443
3920.62,0.021824
3932.19,0.01649241
3943.76,0.016208
3955.33,0.01576867
3966.9,0
3978.47,0
3990.05,0
4000.17,0