File: HDPE processed.csv
wavenumber,intensity
599.76,0
611.331,0
622.902,0
634.473,0
646.044,0
657.615,0
669.186,0
680.757,0.005914723
692.328,0.007868531
703.899,0.0127722
715.47,0.0590547
727.041,0.0506557
738.612,0.007605032
750.183,0
761.754,0
773.325,0
784.895,0
796.466,0
808.037,0
819.608,0
831.179,0
842.75,0
854.321,0
865.892,0
877.463,0
889.034,0
900.605,0
912.176,0
923.747,0
935.318,0
946.889,0
958.46,0
970.03,0
981.601,0
993.172,0
1004.74,0
1016.31,0
1027.89,0
1039.46,0
1051.03,0
1062.6,0
1074.17,0
1085.74,0
1097.31,0
1108.88,0
1120.45,0
1132.02,0
1143.59,0
1155.17,0
1166.74,0
1178.31,0
1189.88,0
1201.45,0
1213.02,0
1224.59,0
1236.16,0
1247.73,0
1259.3,0
1270.87,0
1282.45,0
1294.02,0
1305.59,0
1317.16,0
1328.73,0
1340.3,0
1351.87,0.006323763
1363.44,0.005906229
1375.01,0.007050822
1386.58,0
1398.16,0
1409.73,0.007227944
1421.3,0.009929291
1432.87,0.02981032
1444.44,0.0404892
1456.01,0.0510681
1467.58,0.128295
1479.15,0.0180793
1490.72,0
1502.29,0
1513.86,0
1525.44,0
1537.01,0
1548.58,0
1560.15,0
1571.72,0
1583.29,0
1594.86,0
1606.43,0.006297071
1618,0
1629.57,0.0100819
1641.15,0.0108267
1652.72,0
1664.29,0.007951496
1675.86,0
1687.43,0.008554838
1699,0
1710.57,0.0191283
1722.14,0.0157165
1733.71,0
1745.28,0.027654
1756.85,0.006041273
1768.43,0
1780,0
1791.57,0
1803.14,0
1814.71,0
1826.28,0
1837.85,0
1849.42,0
1860.99,0
1872.56,0
1884.13,0
1895.71,0
1907.28,0
1918.85,0
1930.42,0
1941.99,0
1953.56,0
1965.13,0.005518232
1976.7,0
1988.27,0
1999.84,0
2011.42,0
2022.99,0.005371702
2034.56,0.006837974
2046.13,0
2057.7,0
2069.27,0
2080.84,0
2092.41,0
2103.98,0
2115.55,0
2127.12,0
2138.7,0
2150.27,0
2161.84,0
2173.41,0
2184.98,0
2196.55,0
2208.12,0
2219.69,0
2231.26,0
2242.83,0
2254.4,0
2265.98,0
2277.55,0
2289.12,0
2300.69,0
2312.26,0
2323.83,0
2335.4,0
2346.97,0
2358.54,0
2370.11,0
2381.69,0
2393.26,0
2404.83,0
2416.4,0
2427.97,0
2439.54,0
2451.11,0
2462.68,0
2474.25,0
2485.82,0
2497.39,0
2508.97,0
2520.54,0
2532.11,0
2543.68,0
2555.25,0
2566.82,0
2578.39,0
2589.96,0
2601.53,0.006839716
2613.1,0.006876095
2624.67,0.007273017
2636.25,0.008322852
2647.82,0.008193842
2659.39,0.007478287
2670.96,0.007339022
2682.53,0.00760433
2694.1,0.007738175
2705.67,0.008810995
2717.24,0.0103743
2728.81,0.0137624
2740.38,0.0194754
2751.96,0.0194252
2763.53,0.02383755
2775.1,0.0305181
2786.67,0.0409645
2798.24,0.055334
2809.81,0.0749421
2821.38,0.11053
2832.95,0.190475
2844.52,0.65905
2856.09,0.374545
2867.66,0.153495
2879.24,0.207695
2890.81,0.345481
2902.38,0.486113
2913.95,0.975196
2925.52,0.506379
2937.09,0.203338
2948.66,0.0931121
2960.23,0.0704616
2971.8,0.0298839
2983.37,0.009497421
2994.95,0.006096048
3006.52,0.005866735
3018.09,0
3029.66,0
3041.23,0
3052.8,0
3064.37,0
3075.94,0
3087.51,0
3099.08,0
3110.65,0
3122.23,0
3133.8,0
3145.37,0
3156.94,0
3168.51,0
3180.08,0
3191.65,0
3203.22,0
3214.79,0
3226.36,0
3237.93,0
3249.51,0
3261.08,0
3272.65,0
3284.22,0
3295.79,0
3307.36,0
3318.93,0.005921949
3330.5,0.006253037
3342.07,0.006985012
3353.64,0.007063576
3365.22,0.007619571
3376.79,0.007662143
3388.36,0.008031114
3399.93,0.0074715
3411.5,0.007913472
3423.07,0.007562137
3434.64,0.008052242
3446.21,0.007553151
3457.78,0.0100045
3469.35,0.009889584
3480.92,0.008170826
3492.5,0.008034326
3504.07,0.006210203
3515.64,0.007443316
3527.21,0.00628562
3538.78,0.00697197
3550.35,0.007669404
3561.92,0.007239782
3573.49,0.007773918
3585.06,0.005524009
3596.63,0.007573636
3608.2,0
3619.78,0
3631.35,0.006004755
3642.92,0.0147973
3654.49,0.006233774
3666.06,0.0149569
3677.63,0
3689.2,0
3700.77,0.006664938
3712.34,0
3723.91,0.009477605
3735.49,0
3747.06,0.0151139
3758.63,0.0122286
3770.2,0.005868832
3781.77,0.0259803
3793.34,0.026575
3804.91,0.0191079
3816.48,0
3828.05,0.0232384
3839.62,0
3851.19,0
3862.77,0.014862
3874.34,0.008920791
3885.91,0
3897.48,0.0146108
3909.05,0.0193012
3920.62,0.013273
3932.19,0.006601219
3943.76,0.006539288
3955.33,0.006813791
3966.9,0
3978.47,0
3990.05,0
4000.17,0